#No.   Fermi energy(eV)   SHC((hbar/e)*S/cm)
   1     6.000000    0.00000000E+00
   2     6.100000    0.00000000E+00
   3     6.200000    0.00000000E+00
   4     6.300000    0.00000000E+00
   5     6.400000    0.00000000E+00
   6     6.500000    0.00000000E+00
   7     6.600000    0.00000000E+00
   8     6.700000    0.00000000E+00
   9     6.800000    0.00000000E+00
  10     6.900000    0.00000000E+00
  11     7.000000    0.00000000E+00
  12     7.100000    0.00000000E+00
  13     7.200000    0.00000000E+00
  14     7.300000    0.00000000E+00
  15     7.400000    0.00000000E+00
  16     7.500000    0.00000000E+00
  17     7.600000    0.00000000E+00
  18     7.700000    0.39760504E+00
  19     7.800000    0.56060008E+00
  20     7.900000    0.57159765E+00
  21     8.000000    0.61129664E+00
  22     8.100000    0.53789565E+00
  23     8.200000    0.53759348E+00
  24     8.300000    0.45992607E+00
  25     8.400000    0.40154293E+00
  26     8.500000    0.39721080E+00
  27     8.600000    0.28032432E+00
  28     8.700000    0.13667256E+00
  29     8.800000    0.41007124E-01
  30     8.900000   -0.14867741E+00
  31     9.000000   -0.29514368E+00
  32     9.100000   -0.46775117E+00
  33     9.200000   -0.10604633E+01
  34     9.300000   -0.22077409E+01
  35     9.400000   -0.25862050E+01
  36     9.500000   -0.29947432E+01
  37     9.600000   -0.40301907E+01
  38     9.700000   -0.46877106E+01
  39     9.800000   -0.51778036E+01
  40     9.900000   -0.43507340E+01
  41    10.000000   -0.51350978E+01
  42    10.100000   -0.72589915E+01
  43    10.200000   -0.65733308E+01
  44    10.300000   -0.88695449E+01
  45    10.400000   -0.13158837E+02
  46    10.500000   -0.38297216E+02
  47    10.600000   -0.16218997E+02
  48    10.700000   -0.98360981E+01
  49    10.800000   -0.19586191E+02
  50    10.900000   -0.30764614E+02
  51    11.000000   -0.35895270E+02
  52    11.100000   -0.66065547E+02
  53    11.200000   -0.86295655E+02
  54    11.300000   -0.41561079E+02
  55    11.400000   -0.71686768E+02
  56    11.500000   -0.90080747E+02
  57    11.600000   -0.11805384E+03
  58    11.700000   -0.12265421E+03
  59    11.800000   -0.10763772E+03
  60    11.900000   -0.16929612E+03
  61    12.000000   -0.21620768E+03
  62    12.100000   -0.24312928E+03
  63    12.200000   -0.42448996E+03
  64    12.300000   -0.45833023E+03
  65    12.400000   -0.56024018E+03
  66    12.500000   -0.62856075E+03
  67    12.600000   -0.63776598E+03
  68    12.700000   -0.50126302E+03
  69    12.800000   -0.64298041E+03
  70    12.900000   -0.71156529E+03
  71    13.000000   -0.77209678E+03
  72    13.100000   -0.87108152E+03
  73    13.200000   -0.82634326E+03
  74    13.300000   -0.85214790E+03
  75    13.400000   -0.88114400E+03
  76    13.500000   -0.12923850E+04
  77    13.600000   -0.12071061E+04
  78    13.700000   -0.12385764E+04
  79    13.800000   -0.11712380E+04
  80    13.900000   -0.10816268E+04
  81    14.000000   -0.12176494E+04
  82    14.100000   -0.13432581E+04
  83    14.200000   -0.10431676E+04
  84    14.300000   -0.11323861E+04
  85    14.400000   -0.11321167E+04
  86    14.500000   -0.92469302E+03
  87    14.600000   -0.69432454E+03
  88    14.700000   -0.62892182E+03
  89    14.800000   -0.73707079E+03
  90    14.900000   -0.60112617E+03
  91    15.000000   -0.52796875E+03
  92    15.100000   -0.55739466E+03
  93    15.200000   -0.48601203E+03
  94    15.300000   -0.52340142E+03
  95    15.400000   -0.45517284E+03
  96    15.500000   -0.59484367E+03
  97    15.600000   -0.35451739E+03
  98    15.700000   -0.42626505E+03
  99    15.800000   -0.27082033E+03
 100    15.900000   -0.35756405E+03
 101    16.000000   -0.96739002E+02
 102    16.100000   -0.14351941E+03
 103    16.200000   -0.40184391E+02
 104    16.300000   -0.31182530E+02
 105    16.400000   -0.10399560E+03
 106    16.500000   -0.68802122E+02
 107    16.600000   -0.20988837E+02
 108    16.700000    0.36269070E+03
 109    16.800000    0.43260229E+03
 110    16.900000    0.31990524E+03
 111    17.000000    0.68605178E+03
 112    17.100000    0.65457512E+03
 113    17.200000    0.10741630E+04
 114    17.300000    0.81766212E+03
 115    17.400000    0.94558318E+03
 116    17.500000    0.13435953E+04
 117    17.600000    0.13306331E+04
 118    17.700000    0.16433337E+04
 119    17.800000    0.18363536E+04
 120    17.900000    0.19266823E+04
 121    18.000000    0.18237459E+04
 122    18.100000    0.18205618E+04
 123    18.200000    0.17111296E+04
 124    18.300000    0.15422876E+04
 125    18.400000    0.13629979E+04
 126    18.500000    0.12129551E+04
 127    18.600000    0.11474140E+04
 128    18.700000    0.11046137E+04
 129    18.800000    0.10921482E+04
 130    18.900000    0.84442971E+03
 131    19.000000    0.82284415E+03
 132    19.100000    0.55058720E+03
 133    19.200000    0.75312942E+03
 134    19.300000    0.73381987E+03
 135    19.400000    0.74646893E+03
 136    19.500000    0.73118685E+03
 137    19.600000    0.67722537E+03
 138    19.700000    0.63270249E+03
 139    19.800000    0.65003494E+03
 140    19.900000    0.66218012E+03
 141    20.000000    0.57193163E+03
 142    20.100000    0.58612841E+03
 143    20.200000    0.57663880E+03
 144    20.300000    0.56806911E+03
 145    20.400000    0.55763503E+03
 146    20.500000    0.56201454E+03
 147    20.600000    0.55752773E+03
 148    20.700000    0.50512510E+03
 149    20.800000    0.50001102E+03
 150    20.900000    0.41363174E+03
 151    21.000000    0.51269731E+03
 152    21.100000    0.46442790E+03
 153    21.200000    0.45167087E+03
 154    21.300000    0.44529393E+03
 155    21.400000    0.44710845E+03
 156    21.500000    0.46253080E+03
 157    21.600000    0.38455037E+03
 158    21.700000    0.53477423E+03
 159    21.800000    0.43741812E+03
 160    21.900000    0.43905603E+03
 161    22.000000    0.41397044E+03
 162    22.100000    0.43485319E+03
 163    22.200000    0.43248491E+03
 164    22.300000    0.41993103E+03
 165    22.400000    0.43082100E+03
 166    22.500000    0.43216941E+03
 167    22.600000    0.40053690E+03
 168    22.700000    0.44451228E+03
 169    22.800000    0.44496125E+03
 170    22.900000    0.45145702E+03
 171    23.000000    0.43675791E+03
 172    23.100000    0.41216368E+03
 173    23.200000    0.45275373E+03
 174    23.300000    0.43230339E+03
 175    23.400000    0.47666422E+03
 176    23.500000    0.49736671E+03
 177    23.600000    0.56628033E+03
 178    23.700000    0.51708640E+03
 179    23.800000    0.66165329E+03
 180    23.900000    0.57755363E+03
 181    24.000000    0.94234647E+03
 182    24.100000    0.77114722E+03
 183    24.200000    0.77160372E+03
 184    24.300000    0.87154109E+03
 185    24.400000    0.93673897E+03
 186    24.500000    0.10100163E+04
 187    24.600000    0.86912353E+03
 188    24.700000    0.84417946E+03
 189    24.800000    0.81189552E+03
 190    24.900000    0.59974236E+03
 191    25.000000    0.70408223E+03
 192    25.100000    0.64812294E+03
 193    25.200000    0.62767828E+03
 194    25.300000    0.51503827E+03
 195    25.400000    0.49564968E+03
 196    25.500000    0.50532171E+03
 197    25.600000    0.50105506E+03
 198    25.700000    0.49137620E+03
 199    25.800000    0.49262901E+03
 200    25.900000    0.45963631E+03
 201    26.000000    0.51723228E+03
