#No.   Fermi energy(eV)   SHC((hbar/e)*S/cm)
   1     6.000000    0.00000000E+00
   2     6.100000    0.00000000E+00
   3     6.200000    0.00000000E+00
   4     6.300000    0.00000000E+00
   5     6.400000    0.00000000E+00
   6     6.500000    0.00000000E+00
   7     6.600000    0.00000000E+00
   8     6.700000    0.00000000E+00
   9     6.800000    0.00000000E+00
  10     6.900000    0.00000000E+00
  11     7.000000    0.00000000E+00
  12     7.100000    0.00000000E+00
  13     7.200000    0.00000000E+00
  14     7.300000    0.00000000E+00
  15     7.400000    0.00000000E+00
  16     7.500000    0.00000000E+00
  17     7.600000    0.00000000E+00
  18     7.700000   -0.16988796E-03
  19     7.800000   -0.58306858E-02
  20     7.900000   -0.11464340E-01
  21     8.000000   -0.13625977E-01
  22     8.100000   -0.28346858E-01
  23     8.200000   -0.19053759E+00
  24     8.300000   -0.10191081E+00
  25     8.400000   -0.14235654E+00
  26     8.500000   -0.15998937E+00
  27     8.600000   -0.20303884E+00
  28     8.700000   -0.39524158E+00
  29     8.800000   -0.53092345E+00
  30     8.900000   -0.65532991E+00
  31     9.000000   -0.89063340E+00
  32     9.100000   -0.12898376E+01
  33     9.200000   -0.13226947E+01
  34     9.300000   -0.14518556E+01
  35     9.400000   -0.18465906E+01
  36     9.500000   -0.32499898E+01
  37     9.600000   -0.35153084E+01
  38     9.700000   -0.42456665E+01
  39     9.800000   -0.52460109E+01
  40     9.900000   -0.59329516E+01
  41    10.000000   -0.63068987E+01
  42    10.100000   -0.68638684E+01
  43    10.200000   -0.11125093E+02
  44    10.300000   -0.14557380E+02
  45    10.400000   -0.15686479E+02
  46    10.500000   -0.18269544E+02
  47    10.600000   -0.13830041E+02
  48    10.700000   -0.22123488E+02
  49    10.800000   -0.20760191E+02
  50    10.900000   -0.33138495E+02
  51    11.000000   -0.38913170E+02
  52    11.100000   -0.52540906E+02
  53    11.200000   -0.52677918E+02
  54    11.300000   -0.70983169E+02
  55    11.400000   -0.94936529E+02
  56    11.500000   -0.34114921E+02
  57    11.600000   -0.11069511E+03
  58    11.700000   -0.92944785E+02
  59    11.800000   -0.17071601E+03
  60    11.900000   -0.21553922E+03
  61    12.000000   -0.23418855E+03
  62    12.100000   -0.29096749E+03
  63    12.200000   -0.35063453E+03
  64    12.300000   -0.39049162E+03
  65    12.400000   -0.41680036E+03
  66    12.500000   -0.55702566E+03
  67    12.600000   -0.59869334E+03
  68    12.700000   -0.54261322E+03
  69    12.800000   -0.54469110E+03
  70    12.900000   -0.40673425E+03
  71    13.000000   -0.71882049E+03
  72    13.100000   -0.64193077E+03
  73    13.200000   -0.78593588E+03
  74    13.300000   -0.90110704E+03
  75    13.400000   -0.87141884E+03
  76    13.500000   -0.11968741E+04
  77    13.600000   -0.13355183E+04
  78    13.700000   -0.18800341E+04
  79    13.800000   -0.10573529E+04
  80    13.900000   -0.11425406E+04
  81    14.000000   -0.13222321E+04
  82    14.100000   -0.11865667E+04
  83    14.200000   -0.11472771E+04
  84    14.300000   -0.13113394E+04
  85    14.400000   -0.13043209E+04
  86    14.500000   -0.10064990E+04
  87    14.600000   -0.74443132E+03
  88    14.700000   -0.72312090E+03
  89    14.800000   -0.10326602E+04
  90    14.900000   -0.68935831E+03
  91    15.000000   -0.61753966E+03
  92    15.100000   -0.53840582E+03
  93    15.200000   -0.54361674E+03
  94    15.300000   -0.53699478E+03
  95    15.400000   -0.66227159E+03
  96    15.500000   -0.66174926E+03
  97    15.600000   -0.59424804E+03
  98    15.700000   -0.48644619E+03
  99    15.800000   -0.29491534E+03
 100    15.900000   -0.41945690E+03
 101    16.000000   -0.28360543E+03
 102    16.100000   -0.15035720E+03
 103    16.200000   -0.26101652E+03
 104    16.300000   -0.17290636E+03
 105    16.400000   -0.26014498E+03
 106    16.500000   -0.12224305E+03
 107    16.600000   -0.14622243E+03
 108    16.700000   -0.23339298E+03
 109    16.800000    0.13712536E+03
 110    16.900000    0.27853636E+03
 111    17.000000    0.40440229E+03
 112    17.100000    0.45818108E+03
 113    17.200000    0.43529146E+03
 114    17.300000    0.49660155E+03
 115    17.400000    0.89670688E+03
 116    17.500000    0.95451116E+03
 117    17.600000    0.10038459E+04
 118    17.700000    0.15556191E+04
 119    17.800000    0.16201501E+04
 120    17.900000    0.18123200E+04
 121    18.000000    0.14194102E+04
 122    18.100000    0.17537395E+04
 123    18.200000    0.14022471E+04
 124    18.300000    0.14783503E+04
 125    18.400000    0.10853300E+04
 126    18.500000    0.99033549E+03
 127    18.600000    0.88814081E+03
 128    18.700000    0.81454422E+03
 129    18.800000    0.82074465E+03
 130    18.900000    0.77101929E+03
 131    19.000000    0.73304275E+03
 132    19.100000    0.69240691E+03
 133    19.200000    0.67766398E+03
 134    19.300000    0.65086444E+03
 135    19.400000    0.52411156E+03
 136    19.500000    0.51352598E+03
 137    19.600000    0.46755565E+03
 138    19.700000    0.46689421E+03
 139    19.800000    0.43871539E+03
 140    19.900000    0.25718362E+03
 141    20.000000    0.38667670E+03
 142    20.100000    0.36913201E+03
 143    20.200000    0.36425821E+03
 144    20.300000    0.13952461E+03
 145    20.400000    0.36738238E+03
 146    20.500000    0.28747729E+03
 147    20.600000    0.32743355E+03
 148    20.700000    0.36807052E+03
 149    20.800000    0.28903021E+03
 150    20.900000    0.29394422E+03
 151    21.000000    0.27366551E+03
 152    21.100000    0.26370868E+03
 153    21.200000    0.25165574E+03
 154    21.300000    0.24834926E+03
 155    21.400000    0.33180742E+03
 156    21.500000    0.39433851E+03
 157    21.600000    0.24435454E+03
 158    21.700000    0.24103431E+03
 159    21.800000    0.24606111E+03
 160    21.900000    0.24610889E+03
 161    22.000000    0.22429758E+03
 162    22.100000    0.23389072E+03
 163    22.200000    0.23621781E+03
 164    22.300000    0.25053025E+03
 165    22.400000    0.15559358E+03
 166    22.500000    0.23832692E+03
 167    22.600000    0.23757764E+03
 168    22.700000    0.24146973E+03
 169    22.800000    0.23587697E+03
 170    22.900000    0.25748433E+03
 171    23.000000    0.26171103E+03
 172    23.100000    0.25332257E+03
 173    23.200000    0.17176610E+03
 174    23.300000    0.37027553E+03
 175    23.400000    0.30799714E+03
 176    23.500000    0.30277689E+03
 177    23.600000    0.29195130E+03
 178    23.700000    0.32079558E+03
 179    23.800000    0.33309953E+03
 180    23.900000    0.37444793E+03
 181    24.000000    0.45160754E+03
 182    24.100000    0.50923452E+03
 183    24.200000    0.50660654E+03
 184    24.300000    0.41427330E+03
 185    24.400000    0.49341109E+03
 186    24.500000    0.43862798E+03
 187    24.600000    0.48034652E+03
 188    24.700000    0.48008040E+03
 189    24.800000    0.47945011E+03
 190    24.900000    0.47748509E+03
 191    25.000000    0.43207462E+03
 192    25.100000    0.32350428E+03
 193    25.200000    0.35248270E+03
 194    25.300000    0.33689798E+03
 195    25.400000    0.25528669E+03
 196    25.500000    0.26523567E+03
 197    25.600000    0.25024342E+03
 198    25.700000    0.26422696E+03
 199    25.800000    0.66234652E+02
 200    25.900000    0.18550775E+03
 201    26.000000    0.24409181E+03
